# Wavenumber (cm^-1)  T  A
3.523280 0.796480 0.000009
3.574342 0.807540 0.000009
3.625404 0.813770 0.000009
3.676466 0.876550 0.000009
3.727528 0.918090 0.000009
3.778590 0.902950 0.000009
3.829652 0.897430 0.000009
3.880714 0.868730 0.000009
3.931776 0.854520 0.000009
3.982838 0.834480 0.000009
4.033900 0.855660 0.000010
4.084962 0.887190 0.000010
4.136024 0.877490 0.000010
4.187086 0.869790 0.000010
4.238148 0.884290 0.000010
4.289210 0.894420 0.000010
4.340272 0.899220 0.000010
4.391334 0.896730 0.000010
4.442396 0.884060 0.000010
4.493458 0.890990 0.000010
4.544520 0.895460 0.000010
4.595582 0.891670 0.000010
4.646644 0.894350 0.000010
4.697706 0.897980 0.000010
4.748768 0.893780 0.000010
4.799830 0.891500 0.000010
4.850892 0.896060 0.000010
4.901954 0.906890 0.000011
4.953016 0.920850 0.000011
5.004078 0.918850 0.000011
5.055140 0.918100 0.000011
5.106202 0.920230 0.000011
5.157264 0.919770 0.000011
5.208326 0.921770 0.000011
5.259388 0.926660 0.000011
5.310450 0.934860 0.000011
5.361512 0.933130 0.000011
5.412574 0.939040 0.000011
5.463636 0.945600 0.000011
5.514698 0.943090 0.000011
5.565760 0.945810 0.000011
5.616822 0.947210 0.000011
5.667884 0.951660 0.000011
5.718946 0.952590 0.000011
5.770008 0.951680 0.000012
5.821070 0.962180 0.000012
5.872132 0.971400 0.000012
5.923194 0.975410 0.000012
5.974256 0.978250 0.000012
6.025318 0.977690 0.000012
6.076380 0.975480 0.000012
6.127442 0.972720 0.000012
6.178504 0.971340 0.000012
6.229566 0.975360 0.000012
6.280628 0.980160 0.000012
6.331690 0.981030 0.000012
6.382752 0.977990 0.000012
6.433814 0.976450 0.000012
6.484876 0.975890 0.000012
6.535938 0.971330 0.000012
6.587000 0.967750 0.000013
6.638062 0.969480 0.000013
6.689124 0.973170 0.000013
6.740186 0.972500 0.000013
6.791248 0.966330 0.000013
6.842310 0.963910 0.000013
6.893372 0.965250 0.000013
6.944434 0.965560 0.000013
6.995496 0.963460 0.000013
7.046558 0.961350 0.000013
7.097620 0.961440 0.000013
7.148682 0.962520 0.000013
7.199744 0.961470 0.000013
7.250806 0.958100 0.000013
7.301868 0.955890 0.000013
7.352930 0.956340 0.000013
7.403992 0.955680 0.000013
7.455054 0.956150 0.000014
7.506116 0.958580 0.000014
7.557178 0.959850 0.000014
7.608240 0.961860 0.000014
7.659302 0.965010 0.000014
7.710364 0.965890 0.000014
7.761426 0.967490 0.000014
7.812488 0.971710 0.000014
7.863550 0.973820 0.000014
7.914612 0.974680 0.000014
7.965674 0.976860 0.000014
8.016736 0.978590 0.000014
8.067798 0.980070 0.000014
8.118860 0.983430 0.000014
8.169922 0.984650 0.000014
8.220984 0.984530 0.000014
8.272046 0.986610 0.000014
8.323108 0.988040 0.000015
8.374170 0.986930 0.000015
8.425232 0.986870 0.000015
8.476294 0.988010 0.000015
8.527356 0.987580 0.000015
8.578418 0.985620 0.000015
8.629480 0.983010 0.000015
8.680542 0.979920 0.000015
8.731604 0.976260 0.000015
8.782666 0.973430 0.000015
8.833728 0.971890 0.000015
8.884790 0.970670 0.000015
8.935852 0.967390 0.000015
8.986914 0.960320 0.000015
9.037976 0.958260 0.000015
9.089038 0.957810 0.000015
9.140100 0.950780 0.000015
9.191162 0.943380 0.000016
9.242224 0.939270 0.000016
9.293286 0.936480 0.000016
9.344348 0.935300 0.000016
9.395410 0.929160 0.000016
9.446472 0.922390 0.000016
9.497534 0.920310 0.000016
9.548596 0.919230 0.000016
9.599658 0.916230 0.000016
9.650720 0.913130 0.000016
9.701782 0.914630 0.000016
9.752844 0.915170 0.000016
9.803906 0.913520 0.000017
9.854968 0.910420 0.000017
9.906030 0.910650 0.000017
9.957092 0.912610 0.000017
10.008154 0.911010 0.000017
10.059216 0.911760 0.000017
10.110278 0.913520 0.000017
10.161340 0.916270 0.000017
10.212402 0.919560 0.000017
10.263464 0.921580 0.000018
10.314526 0.923340 0.000018
10.365588 0.926100 0.000018
10.416650 0.930910 0.000018
10.467712 0.935880 0.000018
10.518774 0.939420 0.000018
10.569836 0.942060 0.000018
10.620898 0.946650 0.000018
10.671960 0.952960 0.000019
10.723022 0.959540 0.000019
10.774084 0.964330 0.000019
10.825146 0.967080 0.000019
10.876208 0.969390 0.000019
10.927270 0.972170 0.000019
10.978332 0.973040 0.000019
11.029394 0.973600 0.000019
11.080456 0.976450 0.000019
11.131518 0.979620 0.000020
11.182580 0.981830 0.000020
11.233642 0.980800 0.000020
11.284704 0.978680 0.000020
11.335766 0.974640 0.000020
11.386828 0.968450 0.000020
11.437890 0.962470 0.000020
11.488952 0.957750 0.000020
11.540014 0.953820 0.000021
11.591076 0.948950 0.000021
11.642138 0.941840 0.000021
11.693200 0.931220 0.000021
11.744262 0.918810 0.000021
11.795324 0.908350 0.000021
11.846386 0.898930 0.000021
11.897448 0.889320 0.000021
11.948510 0.880160 0.000022
11.999572 0.871470 0.000022
12.050634 0.863160 0.000022
12.101696 0.854710 0.000022
12.152758 0.845200 0.000022
12.203820 0.834280 0.000022
12.254882 0.825760 0.000022
12.305944 0.818380 0.000022
12.357006 0.811090 0.000022
12.408068 0.805030 0.000023
12.459130 0.800200 0.000023
12.510192 0.796370 0.000023
12.561254 0.793670 0.000023
12.612316 0.791040 0.000023
12.663378 0.788010 0.000023
12.714440 0.786750 0.000023
12.765502 0.787070 0.000023
12.816564 0.787070 0.000024
12.867626 0.787620 0.000024
12.918688 0.789580 0.000024
12.969750 0.792600 0.000024
13.020812 0.799350 0.000024
13.071874 0.808950 0.000024
13.122936 0.818010 0.000024
13.173998 0.825940 0.000024
13.225060 0.834760 0.000024
13.276122 0.844690 0.000025
13.327184 0.854370 0.000025
13.378246 0.864750 0.000025
13.429308 0.876220 0.000025
13.480370 0.889100 0.000025
13.531432 0.902980 0.000025
13.582494 0.915980 0.000025
13.633556 0.926390 0.000025
13.684618 0.937270 0.000026
13.735680 0.949280 0.000026
13.786742 0.958750 0.000026
13.837804 0.964640 0.000026
13.888866 0.967870 0.000026
13.939928 0.968210 0.000026
13.990990 0.964240 0.000026
14.042052 0.956910 0.000026
14.093114 0.946990 0.000027
14.144176 0.934490 0.000027
14.195238 0.918170 0.000027
14.246300 0.897240 0.000027
14.297362 0.872080 0.000027
14.348424 0.844160 0.000027
14.399486 0.815690 0.000027
14.450548 0.784680 0.000027
14.501610 0.751290 0.000027
14.552672 0.717480 0.000028
14.603734 0.685590 0.000028
14.654796 0.651760 0.000028
14.705858 0.613990 0.000028
14.756920 0.577980 0.000028
14.807982 0.545670 0.000028
14.859044 0.515560 0.000028
14.910106 0.486290 0.000028
14.961168 0.459880 0.000029
15.012230 0.436060 0.000029
15.063292 0.412650 0.000029
15.114354 0.389580 0.000029
15.165416 0.365620 0.000029
15.216478 0.342650 0.000029
15.267540 0.322380 0.000029
15.318602 0.304800 0.000029
15.369664 0.290260 0.000030
15.420726 0.277340 0.000030
15.471788 0.264690 0.000030
15.522850 0.252110 0.000030
15.573912 0.240380 0.000030
15.624974 0.228930 0.000030
15.676036 0.217740 0.000030
15.727098 0.207330 0.000030
15.778160 0.197590 0.000030
15.829222 0.189330 0.000031
15.880284 0.181900 0.000031
15.931346 0.175370 0.000031
15.982408 0.170250 0.000031
16.033470 0.164870 0.000031
16.084532 0.160210 0.000031
16.135594 0.155730 0.000031
16.186656 0.149880 0.000031
16.237718 0.144180 0.000032
16.288780 0.138620 0.000032
16.339842 0.133670 0.000032
16.390904 0.129750 0.000032
16.441966 0.127390 0.000032
16.493028 0.125510 0.000032
16.544090 0.123440 0.000032
16.595152 0.121250 0.000033
16.646214 0.117830 0.000033
16.697276 0.113730 0.000033
16.748338 0.110140 0.000033
16.799400 0.107610 0.000034
16.850462 0.105620 0.000034
16.901524 0.103840 0.000034
16.952586 0.102740 0.000034
17.003648 0.101230 0.000035
17.054710 0.099560 0.000035
17.105772 0.097500 0.000035
17.156834 0.095270 0.000035
17.207896 0.093560 0.000035
17.258958 0.091240 0.000036
17.310020 0.089230 0.000036
17.361082 0.088430 0.000036
17.412144 0.087880 0.000036
17.463206 0.086870 0.000037
17.514268 0.085770 0.000037
17.565330 0.085100 0.000037
17.616392 0.084110 0.000037
17.667454 0.082690 0.000038
17.718516 0.081570 0.000038
17.769578 0.080060 0.000038
17.820640 0.078760 0.000038
17.871702 0.078240 0.000038
17.922764 0.077870 0.000039
17.973826 0.077770 0.000039
18.024888 0.077180 0.000039
18.075950 0.076400 0.000039
18.127012 0.075500 0.000040
18.178074 0.073970 0.000040
18.229136 0.073220 0.000040
18.280198 0.073620 0.000040
18.331260 0.073850 0.000041
18.382322 0.074680 0.000041
18.433384 0.083500 0.000041
18.484446 0.103590 0.000041
18.535508 0.121530 0.000042
18.586570 0.127330 0.000042
18.637632 0.111430 0.000042
18.688694 0.086860 0.000042
18.739756 0.071540 0.000042
18.790820 0.060930 0.000043
18.841882 0.059050 0.000043
18.892944 0.057180 0.000043
18.944006 0.055820 0.000043
18.995068 0.054470 0.000044
19.046130 0.053140 0.000044
19.097192 0.052000 0.000044
19.148254 0.050510 0.000044
19.199316 0.049240 0.000045
19.250378 0.048130 0.000045
19.301440 0.047080 0.000045
19.352502 0.046110 0.000045
19.403564 0.045090 0.000045
19.454626 0.044160 0.000046
19.505688 0.043060 0.000046
19.556750 0.041850 0.000046
19.607812 0.040930 0.000046
19.658874 0.040050 0.000047
19.709936 0.039050 0.000047
19.760998 0.038360 0.000047
19.812060 0.037900 0.000047
19.863122 0.037200 0.000048
19.914184 0.036430 0.000048
19.965246 0.035530 0.000048
20.016308 0.034860 0.000048
20.067370 0.034430 0.000048
20.118432 0.033660 0.000049
20.169494 0.032820 0.000049
20.220556 0.032050 0.000049
20.271618 0.031720 0.000049
20.322680 0.031430 0.000050
20.373742 0.030850 0.000050
20.424804 0.030220 0.000050
20.475866 0.029520 0.000050
20.526928 0.028980 0.000051
20.577990 0.028460 0.000051
20.629052 0.028320 0.000051
20.680114 0.028730 0.000051
20.731176 0.028800 0.000051
20.782238 0.028340 0.000052
20.833300 0.028080 0.000052
20.884362 0.028330 0.000052
20.935424 0.028110 0.000052
20.986486 0.027800 0.000053
21.037548 0.027260 0.000053
21.088610 0.026620 0.000053
21.139672 0.026120 0.000053
21.190734 0.025450 0.000054
21.241796 0.025340 0.000054
21.292858 0.025250 0.000054
21.343920 0.025090 0.000054
21.394982 0.025040 0.000054
21.446044 0.024470 0.000055
21.497106 0.023860 0.000055
21.548168 0.023250 0.000055
21.599230 0.022940 0.000055
21.650292 0.023010 0.000056
21.701354 0.022730 0.000056
21.752416 0.022870 0.000056
21.803478 0.023220 0.000056
21.854540 0.022670 0.000057
21.905602 0.021940 0.000057
21.956664 0.021870 0.000057
22.007726 0.021600 0.000057
22.058788 0.021120 0.000058
22.109850 0.021110 0.000058
22.160912 0.021350 0.000058
22.211974 0.021270 0.000058
22.263036 0.021390 0.000058
22.314098 0.021520 0.000059
22.365160 0.021570 0.000059
22.416222 0.021780 0.000059
22.467284 0.021620 0.000059
22.518346 0.021540 0.000060
22.569408 0.021840 0.000060
22.620470 0.022240 0.000060
22.671532 0.022200 0.000060
22.722594 0.022340 0.000061
22.773656 0.023270 0.000061
22.824718 0.023790 0.000061
22.875780 0.024020 0.000061
22.926842 0.024140 0.000061
22.977904 0.023830 0.000062
23.028966 0.024340 0.000062
23.080028 0.025170 0.000062
23.131090 0.025790 0.000062
23.182152 0.026460 0.000063
23.233214 0.026500 0.000063
23.284276 0.027080 0.000063
23.335338 0.027690 0.000063
23.386400 0.028080 0.000064
23.437462 0.028440 0.000064
23.488524 0.029070 0.000064
23.539586 0.029960 0.000064
23.590648 0.030340 0.000064
23.641710 0.031020 0.000065
23.692772 0.032100 0.000065
23.743834 0.033270 0.000065
23.794896 0.034150 0.000065
23.845958 0.034800 0.000066
23.897020 0.035610 0.000066
23.948082 0.036780 0.000066
23.999144 0.038340 0.000066
24.050206 0.040070 0.000066
24.101268 0.041670 0.000066
24.152330 0.043330 0.000066
24.203392 0.045080 0.000066
24.254454 0.046760 0.000066
24.305516 0.048820 0.000067
24.356578 0.051180 0.000067
24.407640 0.053430 0.000067
24.458702 0.055680 0.000067
24.509764 0.058840 0.000067
24.560826 0.062230 0.000067
24.611888 0.065520 0.000067
24.662950 0.069980 0.000067
24.714012 0.074380 0.000067
24.765074 0.078560 0.000068
24.816136 0.084400 0.000068
24.867198 0.091470 0.000068
24.918260 0.100300 0.000068
24.969322 0.114850 0.000068
25.020384 0.139920 0.000068
25.071446 0.173060 0.000068
25.122508 0.178240 0.000068
25.173570 0.168800 0.000068
25.224632 0.166070 0.000069
25.275694 0.169950 0.000069
25.326756 0.181120 0.000069
25.377818 0.195840 0.000069
25.428880 0.212430 0.000069
25.479942 0.231890 0.000069
25.531004 0.253730 0.000069
25.582066 0.277330 0.000069
25.633128 0.303390 0.000069
25.684190 0.332540 0.000069
25.735252 0.364100 0.000070
25.786314 0.398300 0.000070
25.837376 0.435000 0.000070
25.888438 0.473620 0.000070
25.939500 0.515250 0.000070
25.990562 0.559510 0.000070
26.041624 0.604400 0.000070
26.092686 0.648510 0.000070
26.143748 0.690110 0.000070
26.194810 0.729520 0.000071
26.245872 0.766290 0.000071
26.296934 0.798830 0.000071
26.347996 0.827470 0.000071
26.399058 0.850710 0.000071
26.450120 0.867610 0.000071
26.501182 0.879210 0.000071
26.552244 0.885110 0.000071
26.603306 0.885330 0.000071
26.654368 0.880300 0.000072
26.705430 0.871740 0.000072
26.756492 0.860760 0.000072
26.807554 0.846800 0.000072
26.858616 0.830290 0.000072
26.909678 0.812620 0.000072
26.960740 0.795000 0.000072
27.011802 0.776910 0.000072
27.062864 0.758920 0.000072
27.113926 0.742100 0.000072
27.164988 0.726480 0.000073
27.216050 0.712220 0.000073
27.267112 0.698700 0.000073
27.318174 0.686290 0.000073
27.369236 0.675090 0.000073
27.420298 0.665410 0.000073
27.471360 0.657360 0.000073
27.522422 0.650420 0.000073
27.573484 0.644690 0.000073
27.624546 0.640380 0.000074
27.675608 0.638350 0.000074
27.726670 0.637250 0.000074
27.777732 0.636730 0.000074
27.828794 0.637710 0.000074
27.879856 0.639370 0.000074
27.930918 0.642360 0.000074
27.981980 0.646020 0.000074
28.033042 0.650150 0.000074
28.084104 0.656660 0.000075
28.135166 0.665390 0.000075
28.186228 0.674320 0.000075
28.237290 0.683360 0.000075
28.288352 0.693210 0.000075
28.339414 0.704090 0.000075
28.390476 0.716280 0.000075
28.441538 0.728030 0.000075
28.492600 0.740740 0.000075
28.543662 0.754980 0.000075
28.594724 0.769600 0.000076
28.645786 0.783390 0.000076
28.696848 0.797140 0.000076
28.747910 0.812030 0.000076
28.798972 0.826050 0.000076
28.850034 0.838810 0.000076
28.901096 0.851070 0.000076
28.952158 0.862570 0.000076
29.003220 0.873070 0.000076
29.054282 0.882410 0.000077
29.105344 0.889970 0.000077
29.156406 0.896200 0.000077
29.207468 0.900580 0.000077
29.258530 0.904130 0.000077
29.309592 0.906090 0.000077
29.360654 0.905840 0.000077
29.411716 0.904810 0.000077
29.462778 0.902030 0.000077
29.513840 0.897300 0.000078
29.564902 0.892340 0.000078
29.615964 0.886950 0.000078
29.667026 0.880500 0.000078
29.718088 0.874060 0.000078
29.769150 0.867020 0.000078
29.820212 0.858300 0.000078
29.871274 0.849970 0.000078
29.922336 0.843410 0.000078
29.973398 0.837450 0.000079
30.024460 0.830770 0.000079
30.075522 0.825110 0.000079
30.126584 0.820970 0.000079
30.177646 0.817240 0.000079
30.228708 0.814020 0.000079
30.279770 0.811930 0.000079
30.330832 0.810780 0.000079
30.381894 0.811390 0.000080
30.432956 0.812590 0.000080
30.484018 0.812090 0.000080
30.535080 0.812350 0.000081
30.586142 0.814640 0.000081
30.637204 0.815120 0.000081
30.688266 0.814350 0.000081
30.739328 0.812890 0.000082
30.790390 0.806730 0.000082
30.841452 0.795230 0.000082
30.892514 0.777790 0.000083
30.943576 0.753870 0.000083
30.994638 0.724460 0.000083
31.045700 0.689750 0.000084
31.096762 0.649810 0.000084
31.147824 0.604420 0.000084
31.198886 0.554080 0.000084
31.249948 0.501830 0.000085
31.301010 0.448440 0.000085
31.352072 0.397100 0.000085
31.403134 0.349350 0.000086
31.454196 0.303330 0.000086
31.505258 0.262390 0.000086
31.556320 0.225820 0.000086
31.607382 0.191200 0.000087
31.658444 0.161250 0.000087
31.709506 0.136450 0.000087
31.754016 0.118960 0.000088
32.006032 0.096790 0.000089
32.258048 0.079770 0.000090
32.510064 0.051290 0.000092
32.762080 0.029640 0.000093
33.014096 0.017620 0.000095
33.266112 0.010590 0.000096
33.518128 0.006230 0.000098
33.770144 0.003890 0.000099
34.022160 0.002470 0.000101
34.274176 0.001430 0.000102
34.526192 0.000900 0.000104
34.778208 0.000650 0.000105
35.030224 0.000010 0.000106
35.282240 -0.000180 0.000108
35.534256 -0.000110 0.000109
35.786272 -0.000260 0.000111
36.038288 -0.000330 0.000112
36.290304 -0.000270 0.000114
36.542320 -0.000520 0.000115
36.794336 -0.001000 0.000117
37.046352 -0.001130 0.000118
37.298368 -0.000780 0.000119
37.550384 0.000200 0.000121
37.802400 0.000620 0.000122
38.054416 -0.000210 0.000124
38.306432 -0.000600 0.000125
38.558448 -0.000770 0.000126
38.810464 -0.000830 0.000128
39.062480 -0.000880 0.000129
39.314496 -0.000810 0.000131
39.566512 -0.000620 0.000132
39.818528 -0.000690 0.000133
40.070544 -0.000700 0.000135
40.322560 -0.000660 0.000136
40.574576 -0.000920 0.000138
40.826592 -0.000870 0.000139
41.078608 -0.000650 0.000140
41.330624 -0.000550 0.000142
41.582640 -0.000360 0.000143
41.834656 -0.000190 0.000145
42.086672 0.000240 0.000146
42.338688 0.000810 0.000147
42.590704 0.000850 0.000149
42.842720 0.000890 0.000150
43.094736 0.001030 0.000152
43.346752 0.001290 0.000153
43.598768 0.001560 0.000155
43.850784 0.001770 0.000156
44.102800 0.001900 0.000157
44.354816 0.001680 0.000158
44.606832 0.002280 0.000158
44.858848 0.003130 0.000158
45.110864 0.003180 0.000158
45.362880 0.002960 0.000158
45.614896 0.002670 0.000157
45.866912 0.002550 0.000157
46.118928 0.002410 0.000157
46.370944 0.002080 0.000157
46.622960 0.001990 0.000157
46.874976 0.001990 0.000156
47.126992 0.002320 0.000156
47.379008 0.003150 0.000156
47.631024 0.003890 0.000156
47.883040 0.005100 0.000156
48.135056 0.007370 0.000155
48.387072 0.009290 0.000155
48.639088 0.010340 0.000155
48.891104 0.013050 0.000155
49.143120 0.020030 0.000155
49.395136 0.025450 0.000154
49.647152 0.028070 0.000154
49.899168 0.023230 0.000154
50.151184 0.009920 0.000154
50.403200 0.002900 0.000154
50.655216 0.001320 0.000154
50.907232 0.000410 0.000155
51.159248 0.000150 0.000156
51.411264 0.000070 0.000157
51.663280 -0.000160 0.000158
51.915296 -0.000230 0.000159
52.167312 -0.000380 0.000160
52.419328 -0.000420 0.000161
52.671344 -0.000310 0.000162
52.923360 -0.000650 0.000163
53.175376 -0.000960 0.000164
53.427392 -0.001020 0.000165
53.679408 -0.000860 0.000166
53.931424 -0.000650 0.000167
54.183440 -0.000540 0.000168
54.435456 -0.000480 0.000169
54.687472 -0.000310 0.000170
54.939488 -0.000090 0.000171
55.191504 -0.000050 0.000172
55.443520 -0.000360 0.000173
55.695536 -0.000360 0.000174
55.947552 0.000340 0.000176
56.199568 0.000830 0.000177
56.451584 0.001150 0.000178
56.703600 0.001550 0.000179
56.955616 0.001790 0.000180
57.207632 0.001510 0.000181
57.459648 0.001710 0.000182
57.711664 0.002290 0.000183
57.963680 0.002590 0.000184
58.215696 0.002510 0.000184
58.467712 0.002590 0.000184
58.719728 0.002970 0.000183
58.971744 0.003340 0.000183
59.223760 0.003830 0.000182
59.475776 0.004250 0.000182
59.727792 0.004120 0.000182
59.979808 0.003980 0.000181
60.231824 0.003740 0.000181
60.483840 0.003190 0.000180
60.735856 0.002840 0.000180
60.987872 0.002820 0.000179
61.239888 0.003140 0.000179
61.491904 0.003530 0.000178
61.743920 0.003760 0.000178
61.995936 0.003920 0.000177
62.247952 0.004020 0.000177
62.499968 0.004010 0.000176
62.751984 0.003680 0.000176
63.004000 0.003050 0.000175
63.256016 0.002710 0.000175
63.508032 0.002570 0.000174
63.760048 0.002500 0.000174
64.012064 0.002820 0.000173
64.264080 0.003260 0.000173
64.516096 0.003920 0.000172
64.768112 0.004590 0.000172
65.020128 0.004640 0.000172
65.272144 0.004320 0.000172
65.524160 0.004030 0.000172
65.776176 0.003920 0.000172
66.028192 0.003870 0.000172
66.280208 0.004140 0.000172
66.532224 0.004840 0.000172
66.784240 0.005600 0.000172
67.036256 0.006590 0.000172
67.288272 0.007220 0.000172
67.540288 0.008060 0.000172
67.792304 0.009570 0.000172
68.044320 0.011420 0.000172
68.296336 0.014040 0.000172
68.548352 0.016530 0.000172
68.800368 0.017750 0.000172
69.052384 0.017800 0.000172
69.304400 0.017690 0.000172
69.556416 0.018590 0.000172
69.808432 0.021360 0.000172
70.060448 0.025800 0.000172
70.312464 0.030990 0.000172
70.564480 0.035980 0.000172
70.816496 0.039050 0.000172
71.068512 0.039220 0.000172
71.320528 0.038140 0.000173
71.572544 0.036230 0.000175
71.824560 0.034500 0.000176
72.076576 0.036160 0.000177
72.328592 0.041390 0.000179
72.580608 0.044390 0.000180
72.832624 0.046320 0.000181
73.084640 0.046920 0.000183
73.336656 0.044070 0.000184
73.588672 0.037580 0.000185
73.840688 0.029890 0.000186
74.092704 0.021500 0.000188
74.344720 0.016480 0.000189
74.596736 0.014660 0.000190
74.848752 0.013860 0.000192
75.100768 0.013950 0.000193
75.352784 0.013500 0.000194
75.604800 0.011740 0.000195
75.856816 0.010720 0.000197
76.108832 0.009400 0.000198
76.360848 0.007980 0.000199
76.612864 0.007250 0.000201
76.864880 0.007170 0.000202
77.116896 0.007650 0.000203
77.368912 0.008210 0.000205
77.620928 0.008310 0.000206
77.872944 0.007540 0.000207
78.124960 0.006500 0.000208
78.376976 0.006170 0.000210
78.628992 0.006340 0.000211
78.881008 0.006840 0.000213
79.133024 0.007860 0.000216
79.385040 0.008480 0.000219
79.637056 0.008090 0.000222
79.889072 0.007390 0.000224
80.141088 0.007250 0.000227
80.393104 0.006950 0.000230
80.645120 0.006780 0.000233
80.897136 0.006740 0.000235
81.149152 0.006850 0.000238
81.401168 0.007130 0.000241
81.653184 0.007450 0.000244
81.905200 0.007840 0.000246
82.157216 0.007720 0.000249
82.409232 0.007710 0.000252
82.661248 0.007850 0.000255
82.913264 0.007700 0.000257
83.165280 0.007540 0.000260
83.417296 0.007330 0.000263
83.669312 0.007020 0.000266
83.921328 0.006440 0.000268
84.173344 0.006080 0.000271
84.425360 0.005980 0.000274
84.677376 0.005810 0.000277
84.929392 0.005790 0.000279
85.181408 0.005850 0.000282
85.433424 0.005940 0.000287
85.685440 0.006010 0.000291
85.937456 0.006010 0.000296
86.189472 0.006050 0.000301
86.441488 0.006060 0.000305
86.693504 0.006190 0.000310
86.945520 0.006090 0.000315
87.197536 0.005970 0.000319
87.449552 0.006130 0.000324
87.701568 0.006470 0.000329
87.953584 0.007420 0.000334
88.205600 0.005850 0.000338
88.457616 0.004900 0.000343
88.709632 0.005020 0.000348
88.961648 0.004940 0.000352
89.213664 0.005020 0.000357
89.465680 0.005340 0.000362
89.717696 0.005420 0.000366
89.969712 0.005490 0.000371
90.221728 0.005550 0.000376
90.473744 0.005520 0.000380
90.725760 0.005340 0.000385
90.977776 0.005220 0.000390
91.229792 0.005380 0.000395
91.481808 0.005500 0.000399
91.733824 0.005850 0.000404
91.985840 0.006560 0.000408
92.237856 0.007520 0.000411
92.489872 0.009020 0.000413
92.741888 0.008560 0.000416
92.993904 0.008200 0.000419
93.245920 0.008290 0.000421
93.497936 0.008550 0.000424
93.749952 0.009100 0.000427
94.001968 0.010030 0.000429
94.253984 0.011230 0.000432
94.506000 0.012700 0.000435
94.758016 0.014440 0.000437
95.010032 0.016310 0.000440
95.262048 0.018570 0.000443
95.514064 0.021480 0.000445
95.766080 0.024640 0.000448
96.018096 0.028820 0.000451
96.270112 0.034020 0.000453
96.522128 0.038320 0.000456
96.774144 0.043550 0.000459
97.026160 0.048320 0.000461
97.278176 0.052110 0.000464
97.530192 0.054330 0.000467
97.782208 0.054960 0.000469
98.034224 0.053370 0.000472
98.286240 0.049980 0.000475
98.538256 0.045550 0.000477
98.790272 0.040850 0.000479
99.042288 0.034120 0.000480
99.294304 0.029670 0.000481
99.546320 0.026580 0.000481
99.798336 0.023280 0.000482
100.050352 0.020530 0.000483
100.302368 0.018400 0.000484
100.554384 0.014610 0.000485
100.806400 0.012630 0.000486
101.058416 0.011390 0.000487
101.310432 0.010080 0.000488
101.562448 0.008670 0.000489
101.814464 0.007640 0.000490
102.066480 0.007030 0.000491
102.318496 0.006350 0.000491
102.570512 0.005740 0.000492
102.822528 0.005310 0.000493
103.074544 0.005050 0.000494
103.326560 0.004730 0.000495
103.578576 0.004300 0.000496
103.830592 0.003920 0.000497
104.082608 0.003660 0.000498
104.334624 0.003450 0.000499
104.586640 0.003170 0.000500
104.838656 0.002890 0.000500
105.090672 0.002850 0.000501
105.342688 0.002850 0.000502
105.594704 0.002650 0.000503
105.846720 0.002500 0.000503
106.098736 0.002750 0.000502
106.350752 0.002980 0.000502
106.602768 0.002960 0.000501
106.854784 0.003010 0.000501
107.106800 0.003090 0.000500
107.358816 0.003160 0.000500
107.610832 0.003080 0.000499
107.862848 0.003170 0.000499
108.114864 0.003380 0.000498
108.366880 0.003560 0.000498
108.618896 0.003810 0.000497
108.870912 0.003890 0.000497
109.122928 0.004020 0.000496
109.374944 0.004090 0.000496
109.626960 0.004200 0.000495
109.878976 0.004440 0.000495
110.130992 0.004450 0.000494
110.383008 0.004350 0.000494
110.635024 0.004380 0.000493
110.887040 0.004660 0.000493
111.139056 0.004460 0.000492
111.391072 0.004090 0.000492
111.643088 0.004090 0.000491
111.895104 0.004110 0.000491
112.147120 0.004120 0.000488
112.399136 0.004160 0.000483
112.651152 0.004290 0.000478
112.903168 0.004560 0.000473
113.155184 0.004690 0.000468
113.407200 0.004640 0.000463
113.659216 0.004700 0.000458
113.911232 0.004770 0.000453
114.163248 0.004950 0.000447
114.415264 0.005150 0.000442
114.667280 0.005290 0.000437
114.919296 0.005410 0.000432
115.171312 0.005510 0.000427
115.423328 0.005670 0.000422
115.675344 0.005810 0.000417
115.927360 0.005820 0.000412
116.179376 0.006000 0.000407
116.431392 0.006190 0.000402
116.683408 0.006270 0.000397
116.935424 0.006470 0.000392
117.187440 0.006770 0.000387
117.439456 0.007080 0.000384
117.691472 0.007370 0.000383
117.943488 0.008210 0.000382
118.195504 0.008780 0.000381
118.447520 0.009190 0.000380
118.699536 0.009840 0.000379
118.951552 0.010460 0.000378
119.203568 0.011340 0.000377
119.455584 0.012590 0.000376
119.707600 0.013980 0.000375
119.959616 0.016460 0.000374
120.211632 0.019030 0.000374
120.463648 0.020440 0.000373
120.715664 0.022570 0.000372
120.967680 0.025010 0.000371
121.219696 0.028590 0.000370
121.471712 0.032590 0.000369
121.723728 0.037170 0.000368
121.975744 0.050640 0.000367
122.227760 0.055490 0.000366
122.479776 0.057460 0.000365
122.731792 0.058370 0.000365
122.983808 0.057130 0.000364
123.235824 0.054430 0.000363
123.487840 0.050280 0.000362
123.739856 0.045210 0.000361
123.991872 0.039910 0.000364
124.243888 0.034640 0.000366
124.495904 0.029900 0.000369
124.747920 0.025610 0.000372
124.999936 0.021710 0.000374
125.251952 0.018180 0.000377
125.503968 0.015180 0.000379
125.755984 0.012760 0.000382
126.008000 0.010780 0.000384
126.260016 0.009010 0.000387
126.512032 0.007520 0.000390
126.764048 0.005820 0.000392
127.016064 0.003190 0.000395
127.268080 0.003420 0.000397
127.520096 0.003660 0.000400
127.772112 0.003330 0.000402
128.024128 0.003160 0.000405
128.276144 0.003050 0.000408
128.528160 0.002770 0.000410
128.780176 0.002480 0.000413
129.032192 0.002340 0.000415
129.284208 0.002660 0.000418
129.536224 0.002740 0.000420
129.788240 0.002410 0.000423
130.040256 0.002490 0.000426
130.292272 0.002630 0.000428
130.544288 0.002700 0.000431
130.796304 0.002910 0.000432
131.048320 0.002900 0.000434
131.300336 0.003060 0.000436
131.552352 0.003530 0.000437
131.804368 0.003350 0.000439
132.056384 0.003280 0.000440
132.308400 0.003500 0.000442
132.560416 0.002780 0.000444
132.812432 0.002350 0.000445
133.064448 0.003390 0.000447
133.316464 0.003640 0.000449
133.568480 0.003570 0.000450
133.820496 0.003980 0.000452
134.072512 0.004090 0.000453
134.324528 0.004570 0.000455
134.576544 0.004950 0.000457
134.828560 0.005230 0.000458
135.080576 0.005810 0.000460
135.332592 0.006120 0.000461
135.584608 0.006200 0.000463
135.836624 0.006080 0.000465
136.088640 0.006310 0.000466
136.340656 0.006450 0.000468
136.592672 0.006430 0.000469
136.844688 0.006790 0.000471
137.096704 0.006970 0.000473
137.348720 0.007200 0.000474
137.600736 0.007180 0.000472
137.852752 0.007130 0.000471
138.104768 0.007670 0.000470
138.356784 0.007820 0.000469
138.608800 0.007900 0.000467
138.860816 0.009180 0.000466
139.112832 0.007920 0.000465
139.364848 0.006810 0.000464
139.616864 0.006920 0.000463
139.868880 0.006570 0.000461
140.120896 0.005980 0.000460
140.372912 0.006270 0.000459
140.624928 0.006370 0.000458
140.876944 0.006060 0.000456
141.128960 0.006600 0.000455
141.380976 0.007110 0.000454
141.632992 0.007300 0.000453
141.885008 0.006950 0.000452
142.137024 0.006640 0.000450
142.389040 0.007260 0.000449
142.641056 0.007560 0.000448
142.893072 0.007480 0.000447
143.145088 0.007220 0.000445
143.397104 0.007160 0.000444
143.649120 0.007830 0.000443
143.901136 0.008190 0.000442
144.153152 0.008770 0.000441
144.405168 0.009930 0.000439
144.657184 0.011130 0.000441
144.909200 0.012370 0.000443
145.161216 0.013850 0.000444
145.413232 0.015630 0.000446
145.665248 0.017570 0.000448
145.917264 0.020240 0.000450
146.169280 0.023390 0.000452
146.421296 0.027490 0.000453
146.673312 0.031880 0.000455
146.925328 0.034730 0.000457
147.177344 0.037650 0.000459
147.429360 0.040620 0.000460
147.681376 0.042690 0.000462
147.933392 0.043110 0.000464
148.185408 0.041920 0.000466
148.437424 0.038740 0.000467
148.689440 0.034830 0.000469
148.941456 0.030310 0.000471
149.193472 0.025300 0.000473
149.445488 0.024060 0.000475
149.697504 0.022090 0.000476
149.949520 0.019500 0.000478
150.201536 0.016260 0.000480
150.453552 0.009590 0.000482
150.705568 0.007650 0.000483
150.957584 0.007510 0.000485
151.209600 0.003940 0.000487
151.461616 0.003040 0.000493
151.713632 0.004060 0.000503
151.965648 0.004410 0.000513
152.217664 0.004070 0.000522
152.469680 0.004230 0.000532
152.721696 0.003380 0.000542
152.973712 0.001970 0.000551
153.225728 0.003610 0.000561
153.477744 0.003660 0.000571
153.729760 0.003110 0.000580
153.981776 0.003260 0.000590
154.233792 0.002840 0.000600
154.485808 0.002610 0.000609
154.737824 0.002060 0.000619
154.989840 0.002620 0.000629
155.241856 0.005170 0.000638
155.493872 0.006120 0.000648
155.745888 0.001790 0.000658
155.997904 0.005070 0.000667
156.249920 0.009310 0.000674
156.501936 0.002940 0.000680
156.753952 0.000030 0.000686
157.005968 0.000830 0.000693
157.257984 0.000890 0.000699
157.510000 0.004230 0.000705
157.762016 0.005100 0.000712
158.014032 -0.012300 0.000718
158.266048 0.002200 0.000725
158.518064 0.011270 0.000731
158.770080 0.007130 0.000737
159.022096 0.006690 0.000744
159.274112 0.006350 0.000750
159.526128 0.006980 0.000756
159.778144 0.006870 0.000763
160.030160 0.006340 0.000769
160.282176 0.007260 0.000775
160.534192 0.007320 0.000782
160.786208 0.007240 0.000788
161.038224 0.007250 0.000794
161.290240 0.007770 0.000801
161.542256 0.008770 0.000807
161.794272 0.009620 0.000814
162.046288 0.015090 0.000820
162.298304 0.024400 0.000828
162.550320 0.024550 0.000840
162.802336 0.011170 0.000852
163.054352 0.007210 0.000864
163.306368 0.008200 0.000876
163.558384 0.006730 0.000888
163.810400 0.006840 0.000900
164.062416 0.008780 0.000912
164.314432 0.011980 0.000924
164.566448 0.010700 0.000936
164.818464 0.006600 0.000947
165.070480 0.003820 0.000959
165.322496 0.004130 0.000971
165.574512 0.006190 0.000983
165.826528 0.005300 0.000995
166.078544 0.004310 0.001007
166.330560 0.005410 0.001019
166.582576 0.005550 0.001031
166.834592 0.004900 0.001034
167.086608 0.004400 0.001033
167.338624 0.004660 0.001031
167.590640 0.004630 0.001029
167.842656 0.005450 0.001028
168.094672 0.005740 0.001026
168.346688 0.005240 0.001025
168.598704 0.005430 0.001023
168.850720 0.005770 0.001021
169.102736 0.005930 0.001020
169.354752 0.006710 0.001018
169.606768 0.008080 0.001016
169.858784 0.008900 0.001015
170.110800 0.008690 0.001013
170.362816 0.010700 0.001012
170.614832 0.014060 0.001010
170.866848 0.014400 0.001008
171.118864 0.015550 0.001007
171.370880 0.018320 0.001005
171.622896 0.020780 0.001003
171.874912 0.021650 0.001002
172.126928 0.021230 0.001000
172.378944 0.021780 0.000998
172.630960 0.022480 0.000991
172.882976 0.022340 0.000970
173.134992 0.021140 0.000950
173.387008 0.019350 0.000929
173.639024 0.019120 0.000908
173.891040 0.018350 0.000887
174.143056 0.016510 0.000872
174.395072 0.014630 0.000863
174.647088 0.012890 0.000855
174.899104 0.011470 0.000847
175.151120 0.010560 0.000838
175.403136 0.009270 0.000830
175.655152 0.007600 0.000822
175.907168 0.004260 0.000813
176.159184 0.002510 0.000805
176.411200 0.004100 0.000797
176.663216 0.004260 0.000788
176.915232 0.003900 0.000780
177.167248 0.003930 0.000772
177.419264 0.004430 0.000763
177.671280 0.003480 0.000755
177.923296 0.003200 0.000747
178.175312 0.003660 0.000738
178.427328 0.003300 0.000730
178.679344 0.003080 0.000722
178.931360 0.002710 0.000725
179.183376 0.001920 0.000732
179.435392 0.002250 0.000739
179.687408 0.002290 0.000747
179.939424 0.001860 0.000754
180.191440 0.002300 0.000762
180.443456 0.002650 0.000769
180.695472 0.002310 0.000777
180.947488 0.002400 0.000784
181.199504 0.002560 0.000792
181.451520 0.002510 0.000799
181.703536 0.002390 0.000800
181.955552 0.002130 0.000790
182.207568 0.002310 0.000781
182.459584 0.002450 0.000771
182.711600 0.002230 0.000761
182.963616 0.002690 0.000751
183.215632 0.003220 0.000741
183.467648 0.003320 0.000731
183.719664 0.003350 0.000721
183.971680 0.003270 0.000711
184.223696 0.003350 0.000701
184.475712 0.003380 0.000691
184.727728 0.003620 0.000682
184.979744 0.004150 0.000672
185.231760 0.003950 0.000662
185.483776 0.003930 0.000652
185.735792 0.004130 0.000642
185.987808 0.004340 0.000633
186.239824 0.004970 0.000632
186.491840 0.005390 0.000630
186.743856 0.005510 0.000628
186.995872 0.005560 0.000626
187.247888 0.005870 0.000624
187.499904 0.005560 0.000622
187.751920 0.005210 0.000620
188.003936 0.006040 0.000618
188.255952 0.006080 0.000616
188.507968 0.005880 0.000614
188.759984 0.006200 0.000612
189.012000 0.006230 0.000611
189.264016 0.005880 0.000609
189.516032 0.006010 0.000607
189.768048 0.006650 0.000605
190.020064 0.006270 0.000603
190.272080 0.005910 0.000601
190.524096 0.005840 0.000599
190.776112 0.005350 0.000597
191.028128 0.005340 0.000595
191.280144 0.005700 0.000593
191.532160 0.005750 0.000591
191.784176 0.005490 0.000590
192.036192 0.005590 0.000588
192.288208 0.005580 0.000588
192.540224 0.005690 0.000591
192.792240 0.005890 0.000593
193.044256 0.005790 0.000596
193.296272 0.006310 0.000599
193.548288 0.006970 0.000601
193.800304 0.007050 0.000604
194.052320 0.007230 0.000607
194.304336 0.008310 0.000609
194.556352 0.008680 0.000612
194.808368 0.008650 0.000615
195.060384 0.009590 0.000617
195.312400 0.010630 0.000620
195.564416 0.011430 0.000623
195.816432 0.012390 0.000626
196.068448 0.013360 0.000628
196.320464 0.014070 0.000631
196.572480 0.014550 0.000634
196.824496 0.014630 0.000636
197.076512 0.014620 0.000639
197.328528 0.014310 0.000642
197.580544 0.013710 0.000644
197.832560 0.013220 0.000647
198.084576 0.012350 0.000650
198.336592 0.011540 0.000652
198.588608 0.010760 0.000655
198.840624 0.009600 0.000658
199.092640 0.008340 0.000660
199.344656 0.007320 0.000662
199.596672 0.006690 0.000664
199.848688 0.006390 0.000666
200.100704 0.005820 0.000667
200.352720 0.005110 0.000669
200.604736 0.005000 0.000671
200.856752 0.004970 0.000672
201.108768 0.004750 0.000674
201.360784 0.004340 0.000676
201.612800 0.004160 0.000677
201.864816 0.004260 0.000679
202.116832 0.004770 0.000681
202.368848 0.005470 0.000682
202.620864 0.005320 0.000684
202.872880 0.002680 0.000685
203.124896 0.001570 0.000687
203.376912 0.001890 0.000689
203.628928 0.002190 0.000690
203.880944 0.002170 0.000692
204.132960 0.002430 0.000694
204.384976 0.002900 0.000695
204.636992 0.002740 0.000697
204.889008 0.002320 0.000699
205.141024 0.002200 0.000700
205.393040 0.002400 0.000702
205.645056 0.002300 0.000704
205.897072 0.002460 0.000705
206.149088 0.002510 0.000707
206.401104 0.002140 0.000710
206.653120 0.002040 0.000713
206.905136 0.002090 0.000716
207.157152 0.002620 0.000719
207.409168 0.002730 0.000722
207.661184 0.002510 0.000725
207.913200 0.002630 0.000728
208.165216 0.002930 0.000731
208.417232 0.002400 0.000734
208.669248 0.002330 0.000737
208.921264 0.002780 0.000740
209.173280 0.002630 0.000743
209.425296 0.002970 0.000745
209.677312 0.003180 0.000748
209.929328 0.003040 0.000751
210.181344 0.003650 0.000754
210.433360 0.003960 0.000757
210.685376 0.003980 0.000760
210.937392 0.003750 0.000763
211.189408 0.003620 0.000766
211.441424 0.003810 0.000769
211.693440 0.003960 0.000772
211.945456 0.004530 0.000775
212.197472 0.005090 0.000778
212.449488 0.004800 0.000781
212.701504 0.004710 0.000783
212.953520 0.004850 0.000787
213.205536 0.004600 0.000790
213.457552 0.004960 0.000794
213.709568 0.005260 0.000797
213.961584 0.005480 0.000800
214.213600 0.005780 0.000804
214.465616 0.005970 0.000807
214.717632 0.005880 0.000811
214.969648 0.005640 0.000814
215.221664 0.005940 0.000818
215.473680 0.006160 0.000821
215.725696 0.006270 0.000825
215.977712 0.006500 0.000828
216.229728 0.006690 0.000832
216.481744 0.006620 0.000835
216.733760 0.006560 0.000839
216.985776 0.007430 0.000842
217.237792 0.007720 0.000846
217.489808 0.007200 0.000849
217.741824 0.006690 0.000853
217.993840 0.006880 0.000856
218.245856 0.007540 0.000860
218.497872 0.007370 0.000863
218.749888 0.007470 0.000867
219.001904 0.007730 0.000870
219.253920 0.007940 0.000874
219.505936 0.008220 0.000882
219.757952 0.008190 0.000891
220.009968 0.008870 0.000899
220.261984 0.008760 0.000908
220.514000 0.008180 0.000917
220.766016 0.008600 0.000926
221.018032 0.008870 0.000934
221.270048 0.008570 0.000943
221.522064 0.008530 0.000952
221.774080 0.008930 0.000961
222.026096 0.008450 0.000970
222.278112 0.007760 0.000978
222.530128 0.007420 0.000987
222.782144 0.006850 0.000996
223.034160 0.006320 0.001005
223.286176 0.006010 0.001013
223.538192 0.005520 0.001022
223.790208 0.005790 0.001031
224.042224 0.005650 0.001040
224.294240 0.005080 0.001049
224.546256 0.004610 0.001057
224.798272 0.004150 0.001064
225.050288 0.004400 0.001070
225.302304 0.004740 0.001076
225.554320 0.005070 0.001081
225.806336 0.005600 0.001087
226.058352 0.004320 0.001093
226.310368 0.002910 0.001099
226.562384 0.003720 0.001105
226.814400 0.004090 0.001110
227.066416 0.004190 0.001116
227.318432 0.004490 0.001122
227.570448 0.005000 0.001128
227.822464 0.002280 0.001134
228.074480 0.002180 0.001140
228.326496 0.002840 0.001145
228.578512 0.002760 0.001151
228.830528 0.003120 0.001157
229.082544 0.003140 0.001163
229.334560 0.002770 0.001169
229.586576 0.002870 0.001175
229.838592 0.002960 0.001180
230.090608 0.002440 0.001186
230.342624 0.002290 0.001192
230.594640 0.002730 0.001202
230.846656 0.002590 0.001217
231.098672 0.002230 0.001232
231.350688 0.002060 0.001247
231.602704 0.001950 0.001262
231.854720 0.001980 0.001278
232.106736 0.002290 0.001293
232.358752 0.002490 0.001308
232.610768 0.002280 0.001323
232.862784 0.002220 0.001338
233.114800 0.002570 0.001353
233.366816 0.003130 0.001368
233.618832 0.003320 0.001383
233.870848 0.003260 0.001398
234.122864 0.002760 0.001414
234.374880 0.002390 0.001432
234.626896 0.002660 0.001450
234.878912 0.003030 0.001467
235.130928 0.003150 0.001485
235.382944 0.002820 0.001503
235.634960 0.002710 0.001521
235.886976 0.003490 0.001538
236.138992 0.003950 0.001556
236.391008 0.003970 0.001574
236.643024 0.003910 0.001592
236.895040 0.004060 0.001609
237.147056 0.004490 0.001627
237.399072 0.004770 0.001644
237.651088 0.004450 0.001662
237.903104 0.004030 0.001680
238.155120 0.004490 0.001697
238.407136 0.004620 0.001715
238.659152 0.004700 0.001732
238.911168 0.005260 0.001750
239.163184 0.005170 0.001767
239.415200 0.005290 0.001785
239.667216 0.005770 0.001802
239.919232 0.005880 0.001820
240.171248 0.005980 0.001701
240.423264 0.005270 0.001629
240.675280 0.005370 0.001739
240.927296 0.006480 0.001850
241.179312 0.006500 0.001960
241.431328 0.006230 0.002071
241.683344 0.006370 0.002104
241.935360 0.006330 0.002076
242.187376 0.006380 0.002193
242.439392 0.006250 0.002310
242.691408 0.005860 0.002362
242.943424 0.005690 0.002408
243.195440 0.005520 0.002454
243.447456 0.005900 0.002500
243.699472 0.006570 0.002543
243.951488 0.006510 0.002570
244.203504 0.005950 0.002597
244.455520 0.005520 0.002624
244.707536 0.005640 0.002651
244.959552 0.005310 0.002678
245.211568 0.004760 0.002705
245.463584 0.004570 0.002732
245.715600 0.004370 0.002759
245.967616 0.004580 0.002747
246.219632 0.004370 0.002734
246.471648 0.003960 0.002720
246.723664 0.004040 0.002706
246.975680 0.003940 0.002693
247.227696 0.003330 0.002679
247.479712 0.003530 0.002666
247.731728 0.003850 0.002652
247.983744 0.001800 0.002639
248.235760 0.002390 0.002625
248.487776 0.003050 0.002612
248.739792 0.002670 0.002598
248.991808 0.003340 0.002585
249.243824 0.003560 0.002571
249.495840 0.002700 0.002557
249.747856 0.003780 0.002544
249.999872 0.004710 0.002530
250.251888 0.003670 0.002517
250.503904 0.003000 0.002739
250.755920 0.003380 0.002677
251.007936 0.003680 0.002615
251.259952 0.003470 0.002553
251.511968 0.003400 0.002492
251.763984 0.003200 0.002430
252.016000 0.002940 0.002368
252.268016 0.003130 0.002306
252.520032 0.003450 0.002262
252.772048 0.003750 0.002223
253.024064 0.004430 0.002183
253.276080 0.004450 0.002144
253.528096 0.004330 0.002110
253.780112 0.005870 0.002086
254.032128 0.004330 0.002062
254.284144 0.002400 0.002038
254.536160 0.002470 0.002014
254.788176 0.002580 0.001990
255.040192 0.002910 0.001966
255.292208 0.003020 0.001942
255.544224 0.002500 0.001922
255.796240 0.002250 0.001906
256.048256 0.002170 0.001891
256.300272 0.002000 0.001875
256.552288 0.001740 0.001860
256.804304 0.002210 0.001844
257.056320 0.002400 0.001829
257.308336 0.002070 0.001813
257.560352 0.002190 0.001798
257.812368 0.002650 0.001782
258.064384 0.002370 0.001767
258.316400 0.001870 0.001751
258.568416 0.001770 0.001736
258.820432 0.002050 0.001720
259.072448 0.002620 0.001705
259.324464 0.002230 0.001693
259.576480 0.002430 0.001680
259.828496 0.002280 0.001668
260.080512 0.001700 0.001656
260.332528 0.002770 0.001643
260.584544 0.003040 0.001631
260.836560 0.002770 0.001618
261.088576 0.002740 0.001606
261.340592 0.003190 0.001594
261.592608 0.003430 0.001581
261.844624 0.002720 0.001569
262.096640 0.003310 0.001557
262.348656 0.003760 0.001544
262.600672 0.004300 0.001532
262.852688 0.005110 0.001519
263.104704 0.005050 0.001506
263.356720 0.005210 0.001492
263.608736 0.005100 0.001478
263.860752 0.004500 0.001465
264.112768 0.004920 0.001451
264.364784 0.005880 0.001437
264.616800 0.005520 0.001424
264.868816 0.005420 0.001410
265.120832 0.005920 0.001396
265.372848 0.005730 0.001383
265.624864 0.006160 0.001369
265.876880 0.006950 0.001355
266.128896 0.006180 0.001342
266.380912 0.006300 0.001330
266.632928 0.006430 0.001324
266.884944 0.006480 0.001318
267.136960 0.007620 0.001312
267.388976 0.008480 0.001305
267.640992 0.008870 0.001299
267.893008 0.007910 0.001293
268.145024 0.007420 0.001287
268.397040 0.008220 0.001280
268.649056 0.008400 0.001274
268.901072 0.008010 0.001268
269.153088 0.008320 0.001262
269.405104 0.008740 0.001256
269.657120 0.008000 0.001249
269.909136 0.007370 0.001243
270.161152 0.007690 0.001237
270.413168 0.007450 0.001231
270.665184 0.006860 0.001224
270.917200 0.006000 0.001219
271.169216 0.005800 0.001217
271.421232 0.005820 0.001214
271.673248 0.004910 0.001212
271.925264 0.004240 0.001210
272.177280 0.004900 0.001207
272.429296 0.005090 0.001205
272.681312 0.004550 0.001202
272.933328 0.005370 0.001200
273.185344 0.004760 0.001198
273.437360 0.003030 0.001195
273.689376 0.003020 0.001193
273.941392 0.003460 0.001190
274.193408 0.003690 0.001188
274.445424 0.003630 0.001186
274.697440 0.003440 0.001183
274.949456 0.003420 0.001181
275.201472 0.003080 0.001178
275.453488 0.003820 0.001176
275.705504 0.004090 0.001174
275.957520 0.003840 0.001171
276.209536 0.004040 0.001164
276.461552 0.003580 0.001156
276.713568 0.003390 0.001149
276.965584 0.003790 0.001141
277.217600 0.004390 0.001133
277.469616 0.004490 0.001126
277.721632 0.005170 0.001118
277.973648 0.006260 0.001111
278.225664 0.005690 0.001103
278.477680 0.002830 0.001095
278.729696 0.003500 0.001088
278.981712 0.005030 0.001082
279.233728 0.006170 0.001080
279.485744 0.004980 0.001079
279.737760 0.002560 0.001078
279.989776 0.002500 0.001077
280.241792 0.003820 0.001076
280.493808 0.003890 0.001075
280.745824 0.004350 0.001074
280.997840 0.004480 0.001073
281.249856 0.004620 0.001072
281.501872 0.004940 0.001071
281.753888 0.003950 0.001070
282.005904 0.003060 0.001069
282.257920 0.001290 0.001068
282.509936 0.001790 0.001067
282.761952 0.003240 0.001066
283.013968 0.003670 0.001065
283.265984 0.002850 0.001064
283.518000 0.001470 0.001063
283.770016 0.001580 0.001061
284.022032 0.002730 0.001060
284.274048 0.002800 0.001059
284.526064 0.004040 0.001058
284.778080 0.004640 0.001055
285.030096 0.002610 0.001046
285.282112 0.002100 0.001037
285.534128 0.003070 0.001028
285.786144 0.003010 0.001019
286.038160 0.004650 0.001010
286.290176 0.006350 0.001001
286.542192 0.005150 0.000992
286.794208 0.003910 0.000983
287.046224 0.005110 0.000975
287.298240 0.006120 0.000966
287.550256 0.005360 0.000957
287.802272 0.004450 0.000954
288.054288 0.004210 0.000953
288.306304 0.005130 0.000953
288.558320 0.004400 0.000952
288.810336 0.003720 0.000952
289.062352 0.005560 0.000951
289.314368 0.003350 0.000950
289.566384 0.003050 0.000950
289.818400 0.006860 0.000949
290.070416 0.007350 0.000949
290.322432 0.009310 0.000948
290.574448 0.009320 0.000948
290.826464 0.008590 0.000947
291.078480 0.009360 0.000947
291.330496 0.008460 0.000946
291.582512 0.009420 0.000946
291.834528 0.010970 0.000945
292.086544 0.010330 0.000945
292.338560 0.010630 0.000944
292.590576 0.010820 0.000944
292.842592 0.010940 0.000943
293.094608 0.010930 0.000943
293.346624 0.009760 0.000942
293.598640 0.009500 0.000942
293.850656 0.010050 0.000941
294.102672 0.009940 0.000942
294.354688 0.008260 0.000944
294.606704 0.006850 0.000946
294.858720 0.007520 0.000948
295.110736 0.008760 0.000949
295.362752 0.009090 0.000951
295.614768 0.008600 0.000953
295.866784 0.007580 0.000955
296.118800 0.007240 0.000957
296.370816 0.007210 0.000959
296.622832 0.007940 0.000961
296.874848 0.007090 0.000962
297.126864 0.006270 0.000964
297.378880 0.005960 0.000966
297.630896 0.004750 0.000968
297.882912 0.006260 0.000970
298.134928 0.005120 0.000972
298.386944 0.003860 0.000974
298.638960 0.003250 0.000975
298.890976 0.000860 0.000977
299.142992 0.002100 0.000979
299.395008 0.004260 0.000981
299.647024 0.003230 0.000983
299.899040 0.004160 0.000985
300.151056 0.005040 0.000987
